TITLE	
DATA TYPE	ULTRAVIOLET SPECTRUM
ORIGIN	JASCO
OWNER	
DATE	18/06/04
TIME	12:16:31
SPECTROMETER/DATA SYSTEM	
LOCALE	1031
RESOLUTION	
DELTAX	-0.025
XUNITS	NANOMETERS
YUNITS	TRANSMITTANCE
FIRSTX	  650.0000
LASTX	  500.0000
NPOINTS	    6001
FIRSTY	     1.53992
MAXY	     1.55413
MINY	     1.26864
XYDATA
650.0000	1.53992
649.9750	1.54124
649.9500	1.54259
649.9250	1.54258
649.9000	1.54281
649.8750	1.54403
649.8500	1.54316
649.8250	1.54403
649.8000	1.54456
649.7750	1.54608
649.7500	1.54552
649.7250	1.54626
649.7000	1.5412
649.6750	1.5418
649.6500	1.53973
649.6250	1.54026
649.6000	1.53995
649.5750	1.54065
649.5500	1.54487
649.5250	1.54427
649.5000	1.54524
649.4750	1.54457
649.4500	1.53988
649.4250	1.53969
649.4000	1.53979
649.3750	1.53893
649.3500	1.53954
649.3250	1.54344
649.3000	1.54538
649.2750	1.54793
649.2500	1.54661
649.2250	1.54625
649.2000	1.54601
649.1750	1.54379
649.1500	1.54274
649.1250	1.54215
649.1000	1.53796
649.0750	1.53991
649.0500	1.53941
649.0250	1.54579
649.0000	1.54459
648.9750	1.54357
648.9500	1.54468
648.9250	1.54608
648.9000	1.54591
648.8750	1.54518
648.8500	1.5408
648.8250	1.54172
648.8000	1.54104
648.7750	1.53917
648.7500	1.53829
648.7250	1.53852
648.7000	1.53867
648.6750	1.54064
648.6500	1.54012
648.6250	1.54054
648.6000	1.5425
648.5750	1.54015
648.5500	1.53752
648.5250	1.53464
648.5000	1.5345
648.4750	1.53554
648.4500	1.53046
648.4250	1.53783
648.4000	1.53698
648.3750	1.54282
648.3500	1.54421
648.3250	1.5456
648.3000	1.54463
648.2750	1.54257
648.2500	1.5391
648.2250	1.5385
648.2000	1.53559
648.1750	1.53573
648.1500	1.53556
648.1250	1.5374
648.1000	1.53926
648.0750	1.5377
648.0500	1.53548
648.0250	1.53511
648.0000	1.53471
647.9750	1.53135
647.9500	1.53125
647.9250	1.53604
647.9000	1.54147
647.8750	1.54168
647.8500	1.54353
647.8250	1.54346
647.8000	1.54521
647.7750	1.54133
647.7500	1.53907
647.7250	1.53869
647.7000	1.53923
647.6750	1.53909
647.6500	1.53585
647.6250	1.53576
647.6000	1.53773
647.5750	1.53429
647.5500	1.53038
647.5250	1.5299
647.5000	1.53446
647.4750	1.53793
647.4500	1.53571
647.4250	1.54005
647.4000	1.54362
647.3750	1.54304
647.3500	1.54277
647.3250	1.53924
647.3000	1.54262
647.2750	1.54575
647.2500	1.54483
647.2250	1.54443
647.2000	1.54316
647.1750	1.54533
647.1500	1.54349
647.1250	1.54123
647.1000	1.53864
647.0750	1.537
647.0500	1.53895
647.0250	1.53509
647.0000	1.53621
646.9750	1.53412
646.9500	1.53316
646.9250	1.53256
646.9000	1.5304
646.8750	1.53127
646.8500	1.5312
646.8250	1.53386
646.8000	1.53451
646.7750	1.53165
646.7500	1.5323
646.7250	1.53358
646.7000	1.53246
646.6750	1.5366
646.6500	1.53367
646.6250	1.53534
646.6000	1.53728
646.5750	1.54157
646.5500	1.53824
646.5250	1.5362
646.5000	1.53839
646.4750	1.53848
646.4500	1.53777
646.4250	1.53396
646.4000	1.53424
646.3750	1.53436
646.3500	1.53277
646.3250	1.53246
646.3000	1.53311
646.2750	1.53351
646.2500	1.53504
646.2250	1.53681
646.2000	1.54223
646.1750	1.53862
646.1500	1.54078
646.1250	1.54013
646.1000	1.54055
646.0750	1.54078
646.0500	1.54136
646.0250	1.54504
646.0000	1.54486
645.9750	1.54336
645.9500	1.5457
645.9250	1.54469
645.9000	1.54124
645.8750	1.5399
645.8500	1.53792
645.8250	1.53751
645.8000	1.53784
645.7750	1.53858
645.7500	1.54183
645.7250	1.54279
645.7000	1.54203
645.6750	1.54023
645.6500	1.5427
645.6250	1.5442
645.6000	1.53861
645.5750	1.53632
645.5500	1.53732
645.5250	1.54125
645.5000	1.54018
645.4750	1.53981
645.4500	1.54367
645.4250	1.54378
645.4000	1.54517
645.3750	1.54331
645.3500	1.54568
645.3250	1.54377
645.3000	1.5422
645.2750	1.54363
645.2500	1.54159
645.2250	1.54199
645.2000	1.54297
645.1750	1.54418
645.1500	1.54492
645.1250	1.54256
645.1000	1.54102
645.0750	1.54224
645.0500	1.54414
645.0250	1.54026
645.0000	1.54154
644.9750	1.54248
644.9500	1.54178
644.9250	1.54477
644.9000	1.54219
644.8750	1.54283
644.8500	1.54111
644.8250	1.53901
644.8000	1.53957
644.7750	1.53542
644.7500	1.53985
644.7250	1.54003
644.7000	1.54164
644.6750	1.54229
644.6500	1.54275
644.6250	1.54425
644.6000	1.5438
644.5750	1.54299
644.5500	1.54328
644.5250	1.54222
644.5000	1.54252
644.4750	1.54528
644.4500	1.54383
644.4250	1.54132
644.4000	1.54134
644.3750	1.53956
644.3500	1.53792
644.3250	1.53725
644.3000	1.53907
644.2750	1.53973
644.2500	1.54219
644.2250	1.54286
644.2000	1.54789
644.1750	1.55145
644.1500	1.55153
644.1250	1.55315
644.1000	1.5509
644.0750	1.55035
644.0500	1.54905
644.0250	1.54499
644.0000	1.54515
643.9750	1.54174
643.9500	1.54012
643.9250	1.54364
643.9000	1.54423
643.8750	1.54747
643.8500	1.54935
643.8250	1.55194
643.8000	1.55375
643.7750	1.55413
643.7500	1.54888
643.7250	1.54394
643.7000	1.54089
643.6750	1.54051
643.6500	1.53951
643.6250	1.54197
643.6000	1.5409
643.5750	1.54425
643.5500	1.54266
643.5250	1.54441
643.5000	1.54655
643.4750	1.54421
643.4500	1.54286
643.4250	1.54127
643.4000	1.5432
643.3750	1.54378
643.3500	1.54134
643.3250	1.53899
643.3000	1.54155
643.2750	1.54147
643.2500	1.54426
643.2250	1.5487
643.2000	1.55023
643.1750	1.55104
643.1500	1.55187
643.1250	1.55136
643.1000	1.55121
643.0750	1.54915
643.0500	1.54615
643.0250	1.54607
643.0000	1.54352
642.9750	1.54339
642.9500	1.54546
642.9250	1.54299
642.9000	1.54115
642.8750	1.54573
642.8500	1.54573
642.8250	1.5482
642.8000	1.54747
642.7750	1.5471
642.7500	1.54844
642.7250	1.55033
642.7000	1.54949
642.6750	1.54686
642.6500	1.54331
642.6250	1.54336
642.6000	1.54498
642.5750	1.54704
642.5500	1.54338
642.5250	1.54115
642.5000	1.54572
642.4750	1.54712
642.4500	1.54543
642.4250	1.54448
642.4000	1.54492
642.3750	1.54257
642.3500	1.54154
642.3250	1.54002
642.3000	1.53878
642.2750	1.5386
642.2500	1.54122
642.2250	1.54324
642.2000	1.54348
642.1750	1.54676
642.1500	1.54436
642.1250	1.54008
642.1000	1.53944
642.0750	1.53852
642.0500	1.53755
642.0250	1.53583
642.0000	1.53569
641.9750	1.5422
641.9500	1.54295
641.9250	1.54465
641.9000	1.5437
641.8750	1.54308
641.8500	1.54317
641.8250	1.53953
641.8000	1.53673
641.7750	1.53799
641.7500	1.53698
641.7250	1.53672
641.7000	1.53772
641.6750	1.54004
641.6500	1.54343
641.6250	1.54083
641.6000	1.54238
641.5750	1.54105
641.5500	1.54123
641.5250	1.54447
641.5000	1.5427
641.4750	1.54229
641.4500	1.54295
641.4250	1.54598
641.4000	1.54563
641.3750	1.54186
641.3500	1.53961
641.3250	1.53834
641.3000	1.54088
641.2750	1.53898
641.2500	1.54166
641.2250	1.53985
641.2000	1.54391
641.1750	1.54365
641.1500	1.54431
641.1250	1.5418
641.1000	1.54093
641.0750	1.54099
641.0500	1.54166
641.0250	1.54069
641.0000	1.53907
640.9750	1.54395
640.9500	1.54348
640.9250	1.54162
640.9000	1.54173
640.8750	1.54293
640.8500	1.54118
640.8250	1.53946
640.8000	1.53877
640.7750	1.54172
640.7500	1.54349
640.7250	1.54147
640.7000	1.54194
640.6750	1.54163
640.6500	1.54271
640.6250	1.54255
640.6000	1.54282
640.5750	1.54404
640.5500	1.54106
640.5250	1.54448
640.5000	1.54432
640.4750	1.54395
640.4500	1.54213
640.4250	1.53938
640.4000	1.54177
640.3750	1.54123
640.3500	1.53908
640.3250	1.53691
640.3000	1.53362
640.2750	1.53526
640.2500	1.53217
640.2250	1.52996
640.2000	1.53257
640.1750	1.53116
640.1500	1.5358
640.1250	1.53778
640.1000	1.53904
640.0750	1.54322
640.0500	1.54165
640.0250	1.53953
640.0000	1.53941
639.9750	1.53834
639.9500	1.5375
639.9250	1.53676
639.9000	1.53971
639.8750	1.53766
639.8500	1.53983
639.8250	1.53908
639.8000	1.53821
639.7750	1.53622
639.7500	1.53671
639.7250	1.53571
639.7000	1.53376
639.6750	1.53227
639.6500	1.53273
639.6250	1.53416
639.6000	1.53497
639.5750	1.53389
639.5500	1.53607
639.5250	1.5372
639.5000	1.53904
639.4750	1.53889
639.4500	1.53639
639.4250	1.53818
639.4000	1.53739
639.3750	1.53738
639.3500	1.53991
639.3250	1.53595
639.3000	1.53562
639.2750	1.53688
639.2500	1.53695
639.2250	1.53682
639.2000	1.53228
639.1750	1.53207
639.1500	1.53102
639.1250	1.5335
639.1000	1.53508
639.0750	1.53597
639.0500	1.53861
639.0250	1.54045
639.0000	1.54303
638.9750	1.54452
638.9500	1.54261
638.9250	1.54447
638.9000	1.54306
638.8750	1.54348
638.8500	1.53876
638.8250	1.53706
638.8000	1.53532
638.7750	1.53791
638.7500	1.5353
638.7250	1.53441
638.7000	1.53616
638.6750	1.53691
638.6500	1.53739
638.6250	1.53722
638.6000	1.53591
638.5750	1.53809
638.5500	1.5369
638.5250	1.53761
638.5000	1.53694
638.4750	1.53723
638.4500	1.53874
638.4250	1.53638
638.4000	1.53548
638.3750	1.53344
638.3500	1.52981
638.3250	1.53238
638.3000	1.53026
638.2750	1.53157
638.2500	1.53095
638.2250	1.52902
638.2000	1.53085
638.1750	1.52971
638.1500	1.52753
638.1250	1.53047
638.1000	1.53043
638.0750	1.52932
638.0500	1.52959
638.0250	1.53231
638.0000	1.53086
637.9750	1.53266
637.9500	1.53091
637.9250	1.53195
637.9000	1.53215
637.8750	1.53114
637.8500	1.52973
637.8250	1.52632
637.8000	1.52751
637.7750	1.5262
637.7500	1.52588
637.7250	1.52426
637.7000	1.52916
637.6750	1.53037
637.6500	1.53048
637.6250	1.52755
637.6000	1.52749
637.5750	1.52702
637.5500	1.52703
637.5250	1.52231
637.5000	1.52088
637.4750	1.52155
637.4500	1.52171
637.4250	1.52293
637.4000	1.52176
637.3750	1.5215
637.3500	1.52248
637.3250	1.52271
637.3000	1.52404
637.2750	1.5234
637.2500	1.52572
637.2250	1.52908
637.2000	1.52949
637.1750	1.52951
637.1500	1.53065
637.1250	1.53218
637.1000	1.52907
637.0750	1.52615
637.0500	1.52789
637.0250	1.52944
637.0000	1.5297
636.9750	1.52852
636.9500	1.52718
636.9250	1.52843
636.9000	1.52429
636.8750	1.52382
636.8500	1.5251
636.8250	1.52399
636.8000	1.52363
636.7750	1.52819
636.7500	1.52874
636.7250	1.52784
636.7000	1.52696
636.6750	1.52221
636.6500	1.52244
636.6250	1.52324
636.6000	1.52091
636.5750	1.51889
636.5500	1.52002
636.5250	1.52185
636.5000	1.52192
636.4750	1.52327
636.4500	1.52099
636.4250	1.52092
636.4000	1.5237
636.3750	1.52537
636.3500	1.52188
636.3250	1.52159
636.3000	1.52276
636.2750	1.52319
636.2500	1.52381
636.2250	1.52199
636.2000	1.52091
636.1750	1.52238
636.1500	1.52557
636.1250	1.52739
636.1000	1.52893
636.0750	1.53027
636.0500	1.53343
636.0250	1.53596
636.0000	1.53453
635.9750	1.53381
635.9500	1.53232
635.9250	1.52981
635.9000	1.5305
635.8750	1.52797
635.8500	1.52483
635.8250	1.52232
635.8000	1.52127
635.7750	1.5229
635.7500	1.52527
635.7250	1.52527
635.7000	1.5257
635.6750	1.52784
635.6500	1.53005
635.6250	1.53082
635.6000	1.52789
635.5750	1.52536
635.5500	1.52307
635.5250	1.52577
635.5000	1.52425
635.4750	1.52219
635.4500	1.52238
635.4250	1.52129
635.4000	1.52473
635.3750	1.52174
635.3500	1.52462
635.3250	1.52424
635.3000	1.52634
635.2750	1.52464
635.2500	1.52326
635.2250	1.52067
635.2000	1.5203
635.1750	1.51816
635.1500	1.52038
635.1250	1.52122
635.1000	1.52401
635.0750	1.52161
635.0500	1.52306
635.0250	1.52438
635.0000	1.52653
634.9750	1.52583
634.9500	1.5249
634.9250	1.52586
634.9000	1.52478
634.8750	1.52164
634.8500	1.52542
634.8250	1.52517
634.8000	1.52518
634.7750	1.5263
634.7500	1.52537
634.7250	1.52891
634.7000	1.52805
634.6750	1.52934
634.6500	1.53053
634.6250	1.5266
634.6000	1.52591
634.5750	1.52309
634.5500	1.52349
634.5250	1.5218
634.5000	1.51689
634.4750	1.52009
634.4500	1.52325
634.4250	1.52542
634.4000	1.52647
634.3750	1.52679
634.3500	1.52803
634.3250	1.5279
634.3000	1.52421
634.2750	1.52292
634.2500	1.52348
634.2250	1.52953
634.2000	1.52597
634.1750	1.52682
634.1500	1.52644
634.1250	1.52518
634.1000	1.52611
634.0750	1.52475
634.0500	1.523
634.0250	1.52318
634.0000	1.52605
633.9750	1.52651
633.9500	1.52797
633.9250	1.52633
633.9000	1.52393
633.8750	1.52763
633.8500	1.52767
633.8250	1.52605
633.8000	1.5253
633.7750	1.52498
633.7500	1.52551
633.7250	1.52434
633.7000	1.52454
633.6750	1.52338
633.6500	1.52234
633.6250	1.52089
633.6000	1.51688
633.5750	1.51973
633.5500	1.51811
633.5250	1.51785
633.5000	1.51704
633.4750	1.52181
633.4500	1.52302
633.4250	1.52244
633.4000	1.52341
633.3750	1.52284
633.3500	1.52263
633.3250	1.52408
633.3000	1.5228
633.2750	1.52199
633.2500	1.52011
633.2250	1.52174
633.2000	1.52399
633.1750	1.51974
633.1500	1.51889
633.1250	1.52113
633.1000	1.52096
633.0750	1.52122
633.0500	1.51601
633.0250	1.5176
633.0000	1.51774
632.9750	1.51613
632.9500	1.51406
632.9250	1.51436
632.9000	1.51743
632.8750	1.52083
632.8500	1.52302
632.8250	1.52388
632.8000	1.52601
632.7750	1.52874
632.7500	1.5291
632.7250	1.52713
632.7000	1.52793
632.6750	1.52971
632.6500	1.53123
632.6250	1.53239
632.6000	1.53405
632.5750	1.53411
632.5500	1.53387
632.5250	1.53026
632.5000	1.53059
632.4750	1.53009
632.4500	1.53033
632.4250	1.52733
632.4000	1.52633
632.3750	1.52856
632.3500	1.52862
632.3250	1.52677
632.3000	1.52754
632.2750	1.52659
632.2500	1.5267
632.2250	1.52595
632.2000	1.5246
632.1750	1.52279
632.1500	1.52372
632.1250	1.52573
632.1000	1.52389
632.0750	1.52445
632.0500	1.52445
632.0250	1.52548
632.0000	1.52698
631.9750	1.52705
631.9500	1.52799
631.9250	1.52672
631.9000	1.5276
631.8750	1.52634
631.8500	1.52547
631.8250	1.52484
631.8000	1.5267
631.7750	1.52301
631.7500	1.52407
631.7250	1.52608
631.7000	1.52712
631.6750	1.5262
631.6500	1.52533
631.6250	1.52113
631.6000	1.52816
631.5750	1.53179
631.5500	1.53332
631.5250	1.53067
631.5000	1.53588
631.4750	1.53582
631.4500	1.53802
631.4250	1.53141
631.4000	1.53204
631.3750	1.53217
631.3500	1.53078
631.3250	1.52863
631.3000	1.52736
631.2750	1.52717
631.2500	1.5276
631.2250	1.52943
631.2000	1.5262
631.1750	1.52552
631.1500	1.52265
631.1250	1.5249
631.1000	1.52316
631.0750	1.52476
631.0500	1.5229
631.0250	1.52541
631.0000	1.52979
630.9750	1.53115
630.9500	1.53234
630.9250	1.53473
630.9000	1.53602
630.8750	1.5376
630.8500	1.53428
630.8250	1.53027
630.8000	1.52936
630.7750	1.52983
630.7500	1.5283
630.7250	1.52553
630.7000	1.52494
630.6750	1.52665
630.6500	1.52775
630.6250	1.52931
630.6000	1.5291
630.5750	1.52814
630.5500	1.53107
630.5250	1.5298
630.5000	1.52675
630.4750	1.52568
630.4500	1.52563
630.4250	1.52132
630.4000	1.51702
630.3750	1.51703
630.3500	1.52181
630.3250	1.52682
630.3000	1.52551
630.2750	1.52608
630.2500	1.52893
630.2250	1.532
630.2000	1.53183
630.1750	1.5298
630.1500	1.52805
630.1250	1.52937
630.1000	1.52807
630.0750	1.52644
630.0500	1.52325
630.0250	1.52201
630.0000	1.5203
629.9750	1.52115
629.9500	1.51996
629.9250	1.52329
629.9000	1.52316
629.8750	1.52072
629.8500	1.52461
629.8250	1.52124
629.8000	1.5236
629.7750	1.52464
629.7500	1.52549
629.7250	1.52569
629.7000	1.52768
629.6750	1.52849
629.6500	1.52896
629.6250	1.52675
629.6000	1.52473
629.5750	1.52536
629.5500	1.52684
629.5250	1.52495
629.5000	1.52181
629.4750	1.52636
629.4500	1.52619
629.4250	1.52759
629.4000	1.52539
629.3750	1.52117
629.3500	1.52183
629.3250	1.51972
629.3000	1.52007
629.2750	1.52183
629.2500	1.52197
629.2250	1.52608
629.2000	1.52804
629.1750	1.53067
629.1500	1.53247
629.1250	1.53458
629.1000	1.53419
629.0750	1.53002
629.0500	1.52945
629.0250	1.53003
629.0000	1.52508
628.9750	1.52392
628.9500	1.52011
628.9250	1.51776
628.9000	1.51792
628.8750	1.51827
628.8500	1.51721
628.8250	1.51716
628.8000	1.51584
628.7750	1.51836
628.7500	1.51807
628.7250	1.51615
628.7000	1.51683
628.6750	1.51872
628.6500	1.51606
628.6250	1.51539
628.6000	1.51494
628.5750	1.5165
628.5500	1.517
628.5250	1.5174
628.5000	1.5202
628.4750	1.52324
628.4500	1.52759
628.4250	1.52595
628.4000	1.52285
628.3750	1.52216
628.3500	1.51878
628.3250	1.51828
628.3000	1.51449
628.2750	1.51433
628.2500	1.51594
628.2250	1.51843
628.2000	1.5206
628.1750	1.5208
628.1500	1.51911
628.1250	1.51761
628.1000	1.51737
628.0750	1.51717
628.0500	1.51822
628.0250	1.51732
628.0000	1.51774
627.9750	1.51617
627.9500	1.51666
627.9250	1.51942
627.9000	1.5179
627.8750	1.51565
627.8500	1.51562
627.8250	1.51457
627.8000	1.51521
627.7750	1.5159
627.7500	1.51431
627.7250	1.51483
627.7000	1.51381
627.6750	1.51038
627.6500	1.51173
627.6250	1.51058
627.6000	1.5114
627.5750	1.51197
627.5500	1.51013
627.5250	1.51459
627.5000	1.51623
627.4750	1.51893
627.4500	1.51765
627.4250	1.52129
627.4000	1.52188
627.3750	1.5215
627.3500	1.52092
627.3250	1.52308
627.3000	1.52038
627.2750	1.52246
627.2500	1.52422
627.2250	1.52178
627.2000	1.52115
627.1750	1.5205
627.1500	1.52351
627.1250	1.51932
627.1000	1.5151
627.0750	1.51753
627.0500	1.51902
627.0250	1.51835
627.0000	1.51693
626.9750	1.51668
626.9500	1.51917
626.9250	1.51637
626.9000	1.51725
626.8750	1.52024
626.8500	1.51591
626.8250	1.516
626.8000	1.51694
626.7750	1.51717
626.7500	1.51671
626.7250	1.51305
626.7000	1.51048
626.6750	1.5141
626.6500	1.51292
626.6250	1.51446
626.6000	1.51661
626.5750	1.51656
626.5500	1.51813
626.5250	1.51875
626.5000	1.51574
626.4750	1.51368
626.4500	1.51218
626.4250	1.51299
626.4000	1.51354
626.3750	1.51377
626.3500	1.51233
626.3250	1.51384
626.3000	1.51482
626.2750	1.51358
626.2500	1.51177
626.2250	1.51323
626.2000	1.51473
626.1750	1.5142
626.1500	1.51604
626.1250	1.51322
626.1000	1.51137
626.0750	1.50977
626.0500	1.50724
626.0250	1.50431
626.0000	1.50412
625.9750	1.50459
625.9500	1.50954
625.9250	1.51315
625.9000	1.51335
625.8750	1.51682
625.8500	1.5165
625.8250	1.51799
625.8000	1.51545
625.7750	1.51465
625.7500	1.51586
625.7250	1.51427
625.7000	1.51538
625.6750	1.51628
625.6500	1.51899
625.6250	1.51631
625.6000	1.51331
625.5750	1.51609
625.5500	1.51391
625.5250	1.5132
625.5000	1.508
625.4750	1.50827
625.4500	1.50826
625.4250	1.50614
625.4000	1.50307
625.3750	1.50418
625.3500	1.50093
625.3250	1.50513
625.3000	1.50178
625.2750	1.50489
625.2500	1.50715
625.2250	1.50344
625.2000	1.50585
625.1750	1.50555
625.1500	1.5073
625.1250	1.508
625.1000	1.50673
625.0750	1.50928
625.0500	1.50857
625.0250	1.50934
625.0000	1.50746
624.9750	1.5059
624.9500	1.50563
624.9250	1.50683
624.9000	1.50921
624.8750	1.50848
624.8500	1.50746
624.8250	1.51016
624.8000	1.51129
624.7750	1.51078
624.7500	1.50997
624.7250	1.50733
624.7000	1.51021
624.6750	1.50888
624.6500	1.50764
624.6250	1.50991
624.6000	1.50871
624.5750	1.51087
624.5500	1.50927
624.5250	1.50803
624.5000	1.50864
624.4750	1.50623
624.4500	1.50555
624.4250	1.50443
624.4000	1.50203
624.3750	1.50354
624.3500	1.50311
624.3250	1.50226
624.3000	1.50437
624.2750	1.5054
624.2500	1.50762
624.2250	1.50603
624.2000	1.50512
624.1750	1.50693
624.1500	1.50626
624.1250	1.50417
624.1000	1.50481
624.0750	1.50788
624.0500	1.50441
624.0250	1.50282
624.0000	1.50107
623.9750	1.49862
623.9500	1.49749
623.9250	1.49519
623.9000	1.49734
623.8750	1.50116
623.8500	1.50411
623.8250	1.50448
623.8000	1.50599
623.7750	1.50672
623.7500	1.50834
623.7250	1.50952
623.7000	1.50853
623.6750	1.50743
623.6500	1.5088
623.6250	1.50751
623.6000	1.51002
623.5750	1.50753
623.5500	1.50788
623.5250	1.51027
623.5000	1.50992
623.4750	1.50752
623.4500	1.5087
623.4250	1.50785
623.4000	1.50803
623.3750	1.50436
623.3500	1.50579
623.3250	1.5079
623.3000	1.51165
623.2750	1.51307
623.2500	1.51387
623.2250	1.51422
623.2000	1.50942
623.1750	1.50817
623.1500	1.50666
623.1250	1.50388
623.1000	1.50435
623.0750	1.50362
623.0500	1.50524
623.0250	1.51079
623.0000	1.51199
622.9750	1.51119
622.9500	1.50731
622.9250	1.50708
622.9000	1.50898
622.8750	1.5101
622.8500	1.51103
622.8250	1.51039
622.8000	1.51294
622.7750	1.51764
622.7500	1.51658
622.7250	1.51444
622.7000	1.51358
622.6750	1.51051
622.6500	1.5113
622.6250	1.50655
622.6000	1.50159
622.5750	1.50369
622.5500	1.50355
622.5250	1.50635
622.5000	1.50754
622.4750	1.51057
622.4500	1.51191
622.4250	1.51196
622.4000	1.51249
622.3750	1.51372
622.3500	1.51045
622.3250	1.51225
622.3000	1.51016
622.2750	1.51042
622.2500	1.50785
622.2250	1.50493
622.2000	1.50577
622.1750	1.5071
622.1500	1.50605
622.1250	1.5062
622.1000	1.50857
622.0750	1.50918
622.0500	1.51169
622.0250	1.50903
622.0000	1.50994
621.9750	1.51031
621.9500	1.50989
621.9250	1.51054
621.9000	1.50803
621.8750	1.50953
621.8500	1.50925
621.8250	1.50739
621.8000	1.50504
621.7750	1.50461
621.7500	1.50739
621.7250	1.50835
621.7000	1.50808
621.6750	1.51168
621.6500	1.5125
621.6250	1.51194
621.6000	1.51096
621.5750	1.50876
621.5500	1.5099
621.5250	1.50932
621.5000	1.51066
621.4750	1.51121
621.4500	1.51229
621.4250	1.51424
621.4000	1.51074
621.3750	1.50707
621.3500	1.50255
621.3250	1.50322
621.3000	1.50457
621.2750	1.50549
621.2500	1.50825
621.2250	1.51127
621.2000	1.51413
621.1750	1.51766
621.1500	1.5167
621.1250	1.51748
621.1000	1.52147
621.0750	1.52124
621.0500	1.52094
621.0250	1.51897
621.0000	1.51872
620.9750	1.5172
620.9500	1.51799
620.9250	1.51489
620.9000	1.51354
